f[Hz]	H_max[T]	H_min[T]	F[%]	U_HB[-]	dPCB[kPa]	Tspan [K]	Qc[W]	Qh[W]	Wpump[W]	Wvalv[W]	Wmotor[W]	COP[-]
1	1	0.05	90	0.1988	21.4397	20.0000	43.8433	61.8129	2.2437	83.2749	3.1542	0.4944
1	1	0.05	90	0.3977	46.5944	20.0000	75.2790	113.9295	9.7520	83.2749	5.4158	0.7647
1	1	0.05	90	0.5965	75.4642	20.0000	81.2621	146.3511	23.6910	83.2749	5.8462	0.7203
1	1	0.05	90	0.7953	108.0492	20.0000	43.7979	142.6246	45.2265	83.2749	3.1509	0.3327
1	1	0.05	90	0.9942	144.3493	20.0000	-66.1251	75.2242	75.5248	83.2749	-4.7572	-0.4293
1	1	0.05	100	0.1988	19.0245	20.0000	43.4475	65.1911	1.8257	91.9600	3.1257	0.4483
1	1	0.05	100	0.3977	41.0582	20.0000	75.9673	117.9009	7.8801	91.9600	5.4653	0.7214
1	1	0.05	100	0.5965	66.1012	20.0000	85.5109	152.6146	19.0288	91.9600	6.1519	0.7300
1	1	0.05	100	0.7953	94.1535	20.0000	55.1167	153.7292	36.1378	91.9600	3.9652	0.4174
1	1	0.05	100	0.9942	125.2151	20.0000	-43.0387	94.7089	60.0731	91.9600	-3.0963	-0.2890
1	1	0.1	90	0.1988	21.4397	20.0000	42.4801	59.6068	2.2437	83.2749	3.0561	0.4796
1	1	0.1	90	0.3977	46.5944	20.0000	71.8436	109.0405	9.7520	83.2749	5.1686	0.7316
1	1	0.1	90	0.5965	75.4642	20.0000	74.7818	137.7631	23.6910	83.2749	5.3800	0.6656
1	1	0.1	90	0.7953	108.0492	20.0000	33.2871	129.3014	45.2265	83.2749	2.3948	0.2543
1	1	0.1	90	0.9942	144.3493	20.0000	-81.3088	56.4658	75.5248	83.2749	-5.8496	-0.5316
1	1	0.1	100	0.1988	19.0245	20.0000	42.1158	63.0132	1.8257	91.9600	3.0299	0.4350
1	1	0.1	100	0.3977	41.0582	20.0000	72.6497	113.1193	7.8801	91.9600	5.2266	0.6915
1	1	0.1	100	0.5965	66.1012	20.0000	79.2800	144.2575	19.0288	91.9600	5.7036	0.6794
1	1	0.1	100	0.7953	94.1535	20.0000	44.9838	140.7584	36.1378	91.9600	3.2362	0.3425
1	1	0.1	100	0.9942	125.2151	20.0000	-57.7908	76.3486	60.0731	91.9600	-4.1576	-0.3908
1	1.1	0.05	90	0.1988	21.4397	20.0000	63.5202	84.1531	2.2437	83.2749	4.5698	0.7051
1	1.1	0.05	90	0.3977	46.5944	20.0000	115.6334	159.0174	9.7520	83.2749	8.3190	1.1410
1	1.1	0.05	90	0.5965	75.4642	20.0000	143.1157	214.9500	23.6910	83.2749	10.2961	1.2205
1	1.1	0.05	90	0.7953	108.0492	20.0000	127.6439	235.1637	45.2265	83.2749	9.1830	0.9271
1	1.1	0.05	90	0.9942	144.3493	20.0000	39.9040	191.8275	75.5248	83.2749	2.8708	0.2468
1	1.1	0.05	100	0.1988	19.0245	20.0000	62.8366	87.2849	1.8257	91.9600	4.5206	0.6392
1	1.1	0.05	100	0.3977	41.0582	20.0000	115.7491	162.5060	7.8801	91.9600	8.3273	1.0701
1	1.1	0.05	100	0.5965	66.1012	20.0000	146.5467	220.5488	19.0288	91.9600	10.5429	1.2058
1	1.1	0.05	100	0.7953	94.1535	20.0000	137.9694	245.4957	36.1378	91.9600	9.9259	0.9996
1	1.1	0.05	100	0.9942	125.2151	20.0000	61.9035	210.5249	60.0731	91.9600	4.4535	0.3956
1	1.1	0.1	90	0.1988	21.4397	20.0000	62.1265	81.8796	2.2437	83.2749	4.4695	0.6904
1	1.1	0.1	90	0.3977	46.5944	20.0000	112.1571	154.0223	9.7520	83.2749	8.0689	1.1094
1	1.1	0.1	90	0.5965	75.4642	20.0000	136.5688	206.1996	23.6910	83.2749	9.8251	1.1693
1	1.1	0.1	90	0.7953	108.0492	20.0000	117.0006	221.5763	45.2265	83.2749	8.4173	0.8545
1	1.1	0.1	90	0.9942	144.3493	20.0000	24.4763	172.6524	75.5248	83.2749	1.7609	0.1524
1	1.1	0.1	100	0.1988	19.0245	20.0000	61.4739	85.0400	1.8257	91.9600	4.4226	0.6260
1	1.1	0.1	100	0.3977	41.0582	20.0000	112.3901	157.6208	7.8801	91.9600	8.0856	1.0414
1	1.1	0.1	100	0.5965	66.1012	20.0000	140.2515	212.0311	19.0288	91.9600	10.0900	1.1583
1	1.1	0.1	100	0.7953	94.1535	20.0000	127.7118	232.2667	36.1378	91.9600	9.1879	0.9303
1	1.1	0.1	100	0.9942	125.2151	20.0000	46.9171	191.7487	60.0731	91.9600	3.3753	0.3019
1	1.2	0.05	90	0.1988	21.4397	20.0000	82.6984	105.9496	2.2437	83.2749	5.9495	0.9041
1	1.2	0.05	90	0.3977	46.5944	20.0000	154.7472	202.7216	9.7520	83.2749	11.1329	1.4857
1	1.2	0.05	90	0.5965	75.4642	20.0000	202.7502	281.1025	23.6910	83.2749	14.5863	1.6680
1	1.2	0.05	90	0.7953	108.0492	20.0000	208.0899	324.0025	45.2265	83.2749	14.9705	1.4504
1	1.2	0.05	90	0.9942	144.3493	20.0000	141.2262	303.3581	75.5248	83.2749	10.1602	0.8359
1	1.2	0.05	100	0.1988	19.0245	20.0000	81.7421	108.8483	1.8257	91.9600	5.8807	0.8202
1	1.2	0.05	100	0.3977	41.0582	20.0000	154.3340	205.7688	7.8801	91.9600	11.1032	1.3911
1	1.2	0.05	100	0.5965	66.1012	20.0000	205.4408	286.1024	19.0288	91.9600	14.7799	1.6335
1	1.2	0.05	100	0.7953	94.1535	20.0000	217.5323	333.6585	36.1378	91.9600	15.6498	1.5133
1	1.2	0.05	100	0.9942	125.2151	20.0000	162.2638	321.3687	60.0731	91.9600	11.6737	0.9912
1	1.2	0.1	90	0.1988	21.4397	20.0000	81.2757	103.6145	2.2437	83.2749	5.8472	0.8896
1	1.2	0.1	90	0.3977	46.5944	20.0000	151.2300	197.6285	9.7520	83.2749	10.8799	1.4554
1	1.2	0.1	90	0.5965	75.4642	20.0000	196.1381	272.1988	23.6910	83.2749	14.1107	1.6200
1	1.2	0.1	90	0.7953	108.0492	20.0000	197.3304	310.1789	45.2265	83.2749	14.1964	1.3829
1	1.2	0.1	90	0.9942	144.3493	20.0000	125.5895	283.8159	75.5248	83.2749	9.0352	0.7483
1	1.2	0.1	100	0.1988	19.0245	20.0000	80.3497	106.5411	1.8257	91.9600	5.7806	0.8070
1	1.2	0.1	100	0.3977	41.0582	20.0000	150.9334	200.7840	7.8801	91.9600	10.8585	1.3635
1	1.2	0.1	100	0.5965	66.1012	20.0000	199.0824	277.4348	19.0288	91.9600	14.3225	1.5887
1	1.2	0.1	100	0.7953	94.1535	20.0000	207.1630	320.1974	36.1378	91.9600	14.9038	1.4487
1	1.2	0.1	100	0.9942	125.2151	20.0000	147.0808	302.2381	60.0731	91.9600	10.5814	0.9045
1	1.3	0.05	90	0.1988	21.4397	20.0000	100.9973	126.8697	2.2437	83.2749	7.2660	1.0885
1	1.3	0.05	90	0.3977	46.5944	20.0000	191.9971	244.4980	9.7520	83.2749	13.8127	1.7971
1	1.3	0.05	90	0.5965	75.4642	20.0000	259.4671	344.2085	23.6910	83.2749	18.6667	2.0653
1	1.3	0.05	90	0.7953	108.0492	20.0000	284.5417	408.6550	45.2265	83.2749	20.4706	1.9100
1	1.3	0.05	90	0.9942	144.3493	20.0000	237.4461	409.5239	75.5248	83.2749	17.0825	1.3500
1	1.3	0.05	100	0.1988	19.0245	20.0000	99.7853	129.5497	1.8257	91.9600	7.1788	0.9883
1	1.3	0.05	100	0.3977	41.0582	20.0000	191.0917	247.1356	7.8801	91.9600	13.7476	1.6823
1	1.3	0.05	100	0.5965	66.1012	20.0000	261.4691	348.6536	19.0288	91.9600	18.8107	2.0144
1	1.3	0.05	100	0.7953	94.1535	20.0000	293.1602	417.6796	36.1378	91.9600	21.0907	1.9650
1	1.3	0.05	100	0.9942	125.2151	20.0000	257.5886	426.8974	60.0731	91.9600	18.5316	1.5102
1	1.3	0.1	90	0.1988	21.4397	20.0000	99.5495	124.4784	2.2437	83.2749	7.1618	1.0741
1	1.3	0.1	90	0.3977	46.5944	20.0000	188.4475	239.3189	9.7520	83.2749	13.5574	1.7681
1	1.3	0.1	90	0.5965	75.4642	20.0000	252.8076	335.1768	23.6910	83.2749	18.1876	2.0200
1	1.3	0.1	90	0.7953	108.0492	20.0000	273.6916	394.6295	45.2265	83.2749	19.6900	1.8469
1	1.3	0.1	90	0.9942	144.3493	20.0000	221.6482	389.6739	75.5248	83.2749	15.9459	1.2684
1	1.3	0.1	100	0.1988	19.0245	20.0000	98.3669	127.1863	1.8257	91.9600	7.0768	0.9753
1	1.3	0.1	100	0.3977	41.0582	20.0000	187.6572	242.0610	7.8801	91.9600	13.5005	1.6557
1	1.3	0.1	100	0.5965	66.1012	20.0000	255.0639	339.8567	19.0288	91.9600	18.3499	1.9721
1	1.3	0.1	100	0.7953	94.1535	20.0000	282.7056	404.0177	36.1378	91.9600	20.3385	1.9046
1	1.3	0.1	100	0.9942	125.2151	20.0000	242.2526	407.4682	60.0731	91.9600	17.4282	1.4295
1	1.4	0.05	90	0.1988	21.4397	20.0000	118.5046	147.0288	2.2437	83.2749	8.5255	1.2601
1	1.4	0.05	90	0.3977	46.5944	20.0000	227.5878	284.6039	9.7520	83.2749	16.3732	2.0803
1	1.4	0.05	90	0.5965	75.4642	20.0000	313.6184	404.6947	23.6910	83.2749	22.5625	2.4212
1	1.4	0.05	90	0.7953	108.0492	20.0000	357.5200	489.7343	45.2265	83.2749	25.7209	2.3182
1	1.4	0.05	90	0.9942	144.3493	20.0000	329.2998	511.1732	75.5248	83.2749	23.6906	1.8045
1	1.4	0.05	100	0.1988	19.0245	20.0000	117.0514	149.5039	1.8257	91.9600	8.4210	1.1452
1	1.4	0.05	100	0.3977	41.0582	20.0000	226.2204	286.8570	7.8801	91.9600	16.2749	1.9482
1	1.4	0.05	100	0.5965	66.1012	20.0000	314.9708	408.6174	19.0288	91.9600	22.6598	2.3567
1	1.4	0.05	100	0.7953	94.1535	20.0000	365.3592	498.1647	36.1378	91.9600	26.2848	2.3666
1	1.4	0.05	100	0.9942	125.2151	20.0000	348.5942	527.9487	60.0731	91.9600	25.0787	1.9682
1	1.4	0.1	90	0.1988	21.4397	20.0000	117.0360	144.5886	2.2437	83.2749	8.4199	1.2459
1	1.4	0.1	90	0.3977	46.5944	20.0000	224.0156	279.3511	9.7520	83.2749	16.1162	2.0525
1	1.4	0.1	90	0.5965	75.4642	20.0000	306.9285	395.5546	23.6910	83.2749	22.0812	2.3784
1	1.4	0.1	90	0.7953	108.0492	20.0000	346.6089	475.5434	45.2265	83.2749	24.9359	2.2590
1	1.4	0.1	90	0.9942	144.3493	20.0000	313.3727	491.0561	75.5248	83.2749	22.5448	1.7281
1	1.4	0.1	100	0.1988	19.0245	20.0000	115.6115	147.0884	1.8257	91.9600	8.3174	1.1323
1	1.4	0.1	100	0.3977	41.0582	20.0000	222.7612	281.7052	7.8801	91.9600	16.0260	1.9226
1	1.4	0.1	100	0.5965	66.1012	20.0000	308.5354	399.7127	19.0288	91.9600	22.1968	2.3166
1	1.4	0.1	100	0.7953	94.1535	20.0000	354.8465	484.3399	36.1378	91.9600	25.5285	2.3098
1	1.4	0.1	100	0.9942	125.2151	20.0000	333.1342	508.2566	60.0731	91.9600	23.9665	1.8928
2	1	0.05	90	0.1988	46.6076	20.0000	81.4472	122.6887	9.7572	83.2749	5.8595	0.8236
2	1	0.05	90	0.3977	108.0744	20.0000	113.7984	212.2446	45.2454	83.2749	8.1869	0.8324
2	1	0.05	90	0.5965	184.4011	20.0000	59.5042	246.4555	115.7916	83.2749	4.2809	0.2926
2	1	0.05	90	0.7953	275.5880	20.0000	-125.6508	190.7331	230.7241	83.2749	-9.0396	-0.4120
2	1	0.05	90	0.9942	381.6354	20.0000	-505.2861	-8.9657	399.3716	83.2749	-36.3515	-1.1322
2	1	0.05	100	0.1988	41.0801	20.0000	80.6635	125.0978	7.8880	91.9600	5.8031	0.7635
2	1	0.05	100	0.3977	94.1959	20.0000	118.0611	216.2440	36.1671	91.9600	8.4936	0.8642
2	1	0.05	100	0.5965	159.3477	20.0000	76.9290	255.7784	91.7625	91.9600	5.5345	0.4065
2	1	0.05	100	0.7953	236.5361	20.0000	-85.0235	209.3774	181.6010	91.9600	-6.1168	-0.3179
2	1	0.05	100	0.9942	325.7613	20.0000	-429.3981	23.4696	312.6103	91.9600	-30.8919	-1.1491
2	1	0.1	90	0.1988	46.6076	20.0000	78.4228	118.1886	9.7572	83.2749	5.6419	0.7948
2	1	0.1	90	0.3977	108.0744	20.0000	105.6493	201.4995	45.2454	83.2749	7.6007	0.7761
2	1	0.1	90	0.5965	184.4011	20.0000	44.2053	227.3818	115.7916	83.2749	3.1802	0.2186
2	1	0.1	90	0.7953	275.5880	20.0000	-149.5244	161.8176	230.7241	83.2749	-10.7571	-0.4931
2	1	0.1	90	0.9942	381.6354	20.0000	-538.2637	-48.3622	399.3716	83.2749	-38.7240	-1.2125
2	1	0.1	100	0.1988	41.0801	20.0000	77.7464	120.7031	7.8880	91.9600	5.5933	0.7373
2	1	0.1	100	0.3977	94.1959	20.0000	110.2645	205.8416	36.1671	91.9600	7.9327	0.8104
2	1	0.1	100	0.5965	159.3477	20.0000	62.2697	237.2908	91.7625	91.9600	4.4798	0.3309
2	1	0.1	100	0.7953	236.5361	20.0000	-108.0581	181.2664	181.6010	91.9600	-7.7740	-0.4066
2	1	0.1	100	0.9942	325.7613	20.0000	-461.4664	-15.0704	312.6103	91.9600	-33.1990	-1.2426
2	1.1	0.05	90	0.1988	46.6076	20.0000	121.0767	167.6060	9.7572	83.2749	8.7106	1.1900
2	1.1	0.05	90	0.3977	108.0744	20.0000	195.6848	303.4632	45.2454	83.2749	14.0780	1.3723
2	1.1	0.05	90	0.5965	184.4011	20.0000	185.0050	385.1874	115.7916	83.2749	13.3097	0.8711
2	1.1	0.05	90	0.7953	275.5880	20.0000	43.8777	377.1811	230.7241	83.2749	3.1567	0.1383
2	1.1	0.05	90	0.9942	381.6354	20.0000	-291.9648	224.8335	399.3716	83.2749	-21.0047	-0.6324
2	1.1	0.05	100	0.1988	41.0801	20.0000	119.4235	169.1564	7.8880	91.9600	8.5916	1.1013
2	1.1	0.05	100	0.3977	94.1959	20.0000	198.3449	305.9315	36.1671	91.9600	14.2694	1.3929
2	1.1	0.05	100	0.5965	159.3477	20.0000	200.2967	392.5172	91.7625	91.9600	14.4098	1.0109
2	1.1	0.05	100	0.7953	236.5361	20.0000	82.0376	393.6313	181.6010	91.9600	5.9020	0.2936
2	1.1	0.05	100	0.9942	325.7613	20.0000	-218.6866	255.0684	312.6103	91.9600	-15.7328	-0.5624
2	1.1	0.1	90	0.1988	46.6076	20.0000	118.0027	162.9876	9.7572	83.2749	8.4894	1.1623
2	1.1	0.1	90	0.3977	108.0744	20.0000	187.4422	292.5041	45.2454	83.2749	13.4850	1.3200
2	1.1	0.1	90	0.5965	184.4011	20.0000	169.5003	365.6999	115.7916	83.2749	12.1943	0.8023
2	1.1	0.1	90	0.7953	275.5880	20.0000	19.5974	347.6179	230.7241	83.2749	1.4099	0.0621
2	1.1	0.1	90	0.9942	381.6354	20.0000	-325.6097	184.4573	399.3716	83.2749	-23.4252	-0.7090
2	1.1	0.1	100	0.1988	41.0801	20.0000	116.4557	164.6438	7.8880	91.9600	8.3781	1.0760
2	1.1	0.1	100	0.3977	94.1959	20.0000	190.4575	295.3166	36.1671	91.9600	13.7020	1.3429
2	1.1	0.1	100	0.5965	159.3477	20.0000	185.4318	373.6697	91.7625	91.9600	13.3404	0.9410
2	1.1	0.1	100	0.7953	236.5361	20.0000	58.6190	364.8920	181.6010	91.9600	4.2172	0.2110
2	1.1	0.1	100	0.9942	325.7613	20.0000	-251.3947	215.5645	312.6103	91.9600	-18.0859	-0.6505
2	1.2	0.05	90	0.1988	46.6076	20.0000	159.5874	211.3382	9.7572	83.2749	11.4811	1.5270
2	1.2	0.05	90	0.3977	108.0744	20.0000	274.7393	391.6099	45.2454	83.2749	19.7654	1.8528
2	1.2	0.05	90	0.5965	184.4011	20.0000	305.5669	518.5670	115.7916	83.2749	21.9832	1.3823
2	1.2	0.05	90	0.7953	275.5880	20.0000	206.0816	555.7861	230.7241	83.2749	14.8260	0.6267
2	1.2	0.05	90	0.9942	381.6354	20.0000	-88.5073	448.1320	399.3716	83.2749	-6.3674	-0.1858
2	1.2	0.05	100	0.1988	41.0801	20.0000	157.1098	212.0715	7.8880	91.9600	11.3029	1.4135
2	1.2	0.05	100	0.3977	94.1959	20.0000	275.9117	392.6542	36.1671	91.9600	19.8498	1.8646
2	1.2	0.05	100	0.5965	159.3477	20.0000	318.9045	524.0832	91.7625	91.9600	22.9428	1.5431
2	1.2	0.05	100	0.7953	236.5361	20.0000	242.0096	570.2553	181.6010	91.9600	17.4108	0.8317
2	1.2	0.05	100	0.9942	325.7613	20.0000	-17.5685	476.3942	312.6103	91.9600	-1.2639	-0.0436
2	1.2	0.1	90	0.1988	46.6076	20.0000	156.4649	206.6143	9.7572	83.2749	11.2565	1.5003
2	1.2	0.1	90	0.3977	108.0744	20.0000	266.4066	380.4541	45.2454	83.2749	19.1659	1.8039
2	1.2	0.1	90	0.5965	184.4011	20.0000	289.8643	498.7474	115.7916	83.2749	20.8535	1.3180
2	1.2	0.1	90	0.7953	275.5880	20.0000	181.4491	525.6528	230.7241	83.2749	13.0539	0.5548
2	1.2	0.1	90	0.9942	381.6354	20.0000	-122.7091	406.9116	399.3716	83.2749	-8.8280	-0.2590
2	1.2	0.1	100	0.1988	41.0801	20.0000	154.0927	207.4512	7.8880	91.9600	11.0858	1.3891
2	1.2	0.1	100	0.3977	94.1959	20.0000	267.9362	381.8439	36.1671	91.9600	19.2760	1.8177
2	1.2	0.1	100	0.5965	159.3477	20.0000	303.8576	504.8905	91.7625	91.9600	21.8603	1.4780
2	1.2	0.1	100	0.7953	236.5361	20.0000	218.2572	540.9550	181.6010	91.9600	15.7020	0.7545
2	1.2	0.1	100	0.9942	325.7613	20.0000	-50.8194	436.0617	312.6103	91.9600	-3.6561	-0.1268
2	1.3	0.05	90	0.1988	46.6076	20.0000	196.2845	253.2774	9.7572	83.2749	14.1212	1.8318
2	1.3	0.05	90	0.3977	108.0744	20.0000	349.9147	475.7694	45.2454	83.2749	25.1737	2.2767
2	1.3	0.05	90	0.5965	184.4011	20.0000	420.0886	645.6674	115.7916	83.2749	30.2222	1.8321
2	1.3	0.05	90	0.7953	275.5880	20.0000	360.0597	725.8160	230.7241	83.2749	25.9036	1.0593
2	1.3	0.05	90	0.9942	381.6354	20.0000	104.5240	660.5223	399.3716	83.2749	7.5197	0.2132
2	1.3	0.05	100	0.1988	41.0801	20.0000	193.0326	253.2423	7.8880	91.9600	13.8872	1.6972
2	1.3	0.05	100	0.3977	94.1959	20.0000	349.6941	475.4788	36.1671	91.9600	25.1578	2.2813
2	1.3	0.05	100	0.5965	159.3477	20.0000	431.5939	649.4922	91.7625	91.9600	31.0499	2.0095
2	1.3	0.05	100	0.7953	236.5361	20.0000	393.9030	738.4260	181.6010	91.9600	28.3383	1.3047
2	1.3	0.05	100	0.9942	325.7613	20.0000	173.2768	686.9445	312.6103	91.9600	12.4660	0.4155
2	1.3	0.1	90	0.1988	46.6076	20.0000	193.1215	248.4509	9.7572	83.2749	13.8936	1.8061
2	1.3	0.1	90	0.3977	108.0744	20.0000	341.5139	464.4403	45.2454	83.2749	24.5693	2.2308
2	1.3	0.1	90	0.5965	184.4011	20.0000	404.2365	625.5503	115.7916	83.2749	29.0818	1.7718
2	1.3	0.1	90	0.7953	275.5880	20.0000	335.1445	695.1957	230.7241	83.2749	24.1111	0.9912
2	1.3	0.1	90	0.9942	381.6354	20.0000	69.8692	618.5913	399.3716	83.2749	5.0266	0.1433
2	1.3	0.1	100	0.1988	41.0801	20.0000	189.9735	248.5187	7.8880	91.9600	13.6672	1.6736
2	1.3	0.1	100	0.3977	94.1959	20.0000	341.6528	464.4950	36.1671	91.9600	24.5793	2.2373
2	1.3	0.1	100	0.5965	159.3477	20.0000	416.4072	630.0054	91.7625	91.9600	29.9573	1.9487
2	1.3	0.1	100	0.7953	236.5361	20.0000	369.8809	708.6525	181.6010	91.9600	26.6101	1.2322
2	1.3	0.1	100	0.9942	325.7613	20.0000	139.5931	645.9120	312.6103	91.9600	10.0427	0.3367
2	1.4	0.05	90	0.1988	46.6076	20.0000	231.3571	293.6550	9.7572	83.2749	16.6444	2.1095
2	1.4	0.05	90	0.3977	108.0744	20.0000	421.6593	556.4801	45.2454	83.2749	30.3352	2.6544
2	1.4	0.05	90	0.5965	184.4011	20.0000	529.3322	767.4002	115.7916	83.2749	38.0815	2.2321
2	1.4	0.05	90	0.7953	275.5880	20.0000	506.9536	888.5822	230.7241	83.2749	36.4715	1.4465
2	1.4	0.05	90	0.9942	381.6354	20.0000	288.6870	863.7840	399.3716	83.2749	20.7688	0.5735
2	1.4	0.05	100	0.1988	41.0801	20.0000	227.3740	292.8966	7.8880	91.9600	16.3578	1.9566
2	1.4	0.05	100	0.3977	94.1959	20.0000	420.1258	554.9321	36.1671	91.9600	30.2249	2.6531
2	1.4	0.05	100	0.5965	159.3477	20.0000	539.1071	769.6208	91.7625	91.9600	38.7847	2.4229
2	1.4	0.05	100	0.7953	236.5361	20.0000	538.8187	899.4392	181.6010	91.9600	38.7639	1.7252
2	1.4	0.05	100	0.9942	325.7613	20.0000	355.3625	888.4589	312.6103	91.9600	25.5657	0.8262
2	1.4	0.1	90	0.1988	46.6076	20.0000	228.1627	288.7446	9.7572	83.2749	16.4146	2.0847
2	1.4	0.1	90	0.3977	108.0744	20.0000	413.2152	545.0138	45.2454	83.2749	29.7277	2.6112
2	1.4	0.1	90	0.5965	184.4011	20.0000	513.3805	747.0401	115.7916	83.2749	36.9339	2.1753
2	1.4	0.1	90	0.7953	275.5880	20.0000	481.8277	857.5588	230.7241	83.2749	34.6639	1.3819
2	1.4	0.1	90	0.9942	381.6354	20.0000	253.6533	821.2262	399.3716	83.2749	18.2484	0.5064
2	1.4	0.1	100	0.1988	41.0801	20.0000	224.2816	288.0838	7.8880	91.9600	16.1354	1.9337
2	1.4	0.1	100	0.3977	94.1959	20.0000	412.0406	543.8081	36.1671	91.9600	29.6432	2.6116
2	1.4	0.1	100	0.5965	159.3477	20.0000	523.8273	749.9003	91.7625	91.9600	37.6854	2.3659
2	1.4	0.1	100	0.7953	236.5361	20.0000	514.5988	869.2720	181.6010	91.9600	37.0215	1.6569
2	1.4	0.1	100	0.9942	325.7613	20.0000	321.3206	846.8086	312.6103	91.9600	23.1166	0.7513
4	1	0.05	90	0.1988	108.1349	20.0000	130.5570	233.8212	45.2906	83.2749	9.3926	0.9464
4	1	0.05	90	0.3977	275.6993	20.0000	67.9589	382.4009	230.8823	83.2749	4.8891	0.2130
4	1	0.05	90	0.5965	502.7003	20.0000	-294.6611	423.1177	631.3885	83.2749	-21.1986	-0.4249
4	1	0.05	90	0.7953	789.1413	20.0000	-1073.3714	310.2800	1321.4368	83.2749	-77.2210	-0.8086
4	1	0.05	90	0.9942	1135.0239	20.0000	-2422.1793	-39.0150	2375.6581	83.2749	-174.2575	-1.0602
4	1	0.05	100	0.1988	94.3004	20.0000	131.1190	233.3002	36.2392	91.9600	9.4330	0.9527
4	1	0.05	100	0.3977	236.7307	20.0000	91.3837	382.6252	181.8567	91.9600	6.5744	0.3259
4	1	0.05	100	0.5965	427.2978	20.0000	-219.6976	423.2139	492.2431	91.9600	-15.8056	-0.3865
4	1	0.05	100	0.7953	666.0078	20.0000	-911.5332	303.6460	1022.8137	91.9600	-65.5779	-0.8688
4	1	0.05	100	0.9942	952.8642	20.0000	-2130.9494	-64.4445	1828.9914	91.9600	-153.3057	-1.2055
4	1	0.1	90	0.1988	108.1349	20.0000	123.3936	223.9766	45.2906	83.2749	8.8772	0.8978
4	1	0.1	90	0.3977	275.6993	20.0000	48.0772	357.7874	230.8823	83.2749	3.4588	0.1514
4	1	0.1	90	0.5965	502.7003	20.0000	-330.7916	380.1313	631.3885	83.2749	-23.7980	-0.4788
4	1	0.1	90	0.7953	789.1413	20.0000	-1127.3359	247.2237	1321.4368	83.2749	-81.1033	-0.8517
4	1	0.1	90	0.9942	1135.0239	20.0000	-2494.0013	-122.4390	2375.6581	83.2749	-179.4246	-1.0941
4	1	0.1	100	0.1988	94.3004	20.0000	124.2982	223.8191	36.2392	91.9600	8.9423	0.9063
4	1	0.1	100	0.3977	236.7307	20.0000	72.4655	358.9920	181.8567	91.9600	5.2133	0.2597
4	1	0.1	100	0.5965	427.2978	20.0000	-254.2912	381.7909	492.2431	91.9600	-18.2943	-0.4494
4	1	0.1	100	0.7953	666.0078	20.0000	-963.5698	242.5344	1022.8137	91.9600	-69.3216	-0.9217
4	1	0.1	100	0.9942	952.8642	20.0000	-2200.6569	-145.7018	1828.9914	91.9600	-158.3206	-1.2485
4	1.1	0.05	90	0.1988	108.1349	20.0000	209.9291	323.7136	45.2906	83.2749	15.1028	1.4612
4	1.1	0.05	90	0.3977	275.6993	20.0000	232.9783	565.7789	230.8823	83.2749	16.7610	0.7040
4	1.1	0.05	90	0.5965	502.7003	20.0000	-42.1903	701.3521	631.3885	83.2749	-3.0353	-0.0593
4	1.1	0.05	90	0.7953	789.1413	20.0000	-733.6461	682.8347	1321.4368	83.2749	-52.7803	-0.5427
4	1.1	0.05	90	0.9942	1135.0239	20.0000	-1996.6098	426.0583	2375.6581	83.2749	-143.6410	-0.8624
4	1.1	0.05	100	0.1988	94.3004	20.0000	208.2080	320.7445	36.2392	91.9600	14.9790	1.4542
4	1.1	0.05	100	0.3977	236.7307	20.0000	252.4574	561.8571	181.8567	91.9600	18.1624	0.8646
4	1.1	0.05	100	0.5965	427.2978	20.0000	27.7578	696.2732	492.2431	91.9600	1.9970	0.0474
4	1.1	0.05	100	0.7953	666.0078	20.0000	-577.3955	670.5156	1022.8137	91.9600	-41.5392	-0.5380
4	1.1	0.05	100	0.9942	952.8642	20.0000	-1711.0947	394.9333	1828.9914	91.9600	-123.1003	-0.9517
4	1.1	0.1	90	0.1988	108.1349	20.0000	202.6772	313.6469	45.2906	83.2749	14.5811	1.4159
4	1.1	0.1	90	0.3977	275.6993	20.0000	212.8073	540.6328	230.8823	83.2749	15.3099	0.6459
4	1.1	0.1	90	0.5965	502.7003	20.0000	-78.9828	657.3660	631.3885	83.2749	-5.6822	-0.1114
4	1.1	0.1	90	0.7953	789.1413	20.0000	-788.7432	618.1836	1321.4368	83.2749	-56.7441	-0.5851
4	1.1	0.1	90	0.9942	1135.0239	20.0000	-2070.0745	340.4196	2375.6581	83.2749	-148.9262	-0.8961
4	1.1	0.1	100	0.1988	94.3004	20.0000	201.3000	311.0453	36.2392	91.9600	14.4820	1.4108
4	1.1	0.1	100	0.3977	236.7307	20.0000	233.2705	537.7213	181.8567	91.9600	16.7820	0.8027
4	1.1	0.1	100	0.5965	427.2978	20.0000	-7.4542	653.8771	492.2431	91.9600	-0.5363	-0.0128
4	1.1	0.1	100	0.7953	666.0078	20.0000	-630.5113	607.8695	1022.8137	91.9600	-45.3605	-0.5896
4	1.1	0.1	100	0.9942	952.8642	20.0000	-1782.4013	311.4935	1828.9914	91.9600	-128.2303	-0.9942
4	1.2	0.05	90	0.1988	108.1349	20.0000	286.7153	410.9483	45.2906	83.2749	20.6270	1.9218
4	1.2	0.05	90	0.3977	275.6993	20.0000	391.5575	742.3256	230.8823	83.2749	28.1696	1.1438
4	1.2	0.05	90	0.5965	502.7003	20.0000	199.3854	968.0387	631.3885	83.2749	14.3443	0.2735
4	1.2	0.05	90	0.7953	789.1413	20.0000	-409.5807	1038.8222	1321.4368	83.2749	-29.4662	-0.2978
4	1.2	0.05	90	0.9942	1135.0239	20.0000	-1591.6123	869.4380	2375.6581	83.2749	-114.5045	-0.6789
4	1.2	0.05	100	0.1988	94.3004	20.0000	282.8324	405.6478	36.2392	91.9600	20.3477	1.9040
4	1.2	0.05	100	0.3977	236.7307	20.0000	407.3627	734.5307	181.8567	91.9600	29.3067	1.3439
4	1.2	0.05	100	0.5965	427.2978	20.0000	264.7228	958.1733	492.2431	91.9600	19.0448	0.4388
4	1.2	0.05	100	0.7953	666.0078	20.0000	-258.4199	1021.3100	1022.8137	91.9600	-18.5914	-0.2357
4	1.2	0.05	100	0.9942	952.8642	20.0000	-1311.2695	833.1408	1828.9914	91.9600	-94.3359	-0.7179
4	1.2	0.1	90	0.1988	108.1349	20.0000	279.3761	400.6705	45.2906	83.2749	20.0990	1.8792
4	1.2	0.1	90	0.3977	275.6993	20.0000	371.1258	716.6999	230.8823	83.2749	26.6997	1.0888
4	1.2	0.1	90	0.5965	502.7003	20.0000	162.0155	923.1609	631.3885	83.2749	11.6558	0.2231
4	1.2	0.1	90	0.7953	789.1413	20.0000	-465.6564	972.7790	1321.4368	83.2749	-33.5005	-0.3396
4	1.2	0.1	90	0.9942	1135.0239	20.0000	-1666.4769	781.8839	2375.6581	83.2749	-119.8904	-0.7125
4	1.2	0.1	100	0.1988	94.3004	20.0000	275.8394	395.7442	36.2392	91.9600	19.8446	1.8632
4	1.2	0.1	100	0.3977	236.7307	20.0000	387.9351	709.9324	181.8567	91.9600	27.9090	1.2857
4	1.2	0.1	100	0.5965	427.2978	20.0000	228.9656	914.9210	492.2431	91.9600	16.4723	0.3812
4	1.2	0.1	100	0.7953	666.0078	20.0000	-312.4720	957.3056	1022.8137	91.9600	-22.4800	-0.2861
4	1.2	0.1	100	0.9942	952.8642	20.0000	-1383.9187	747.8279	1828.9914	91.9600	-99.5625	-0.7598
4	1.3	0.05	90	0.1988	108.1349	20.0000	359.7499	494.4835	45.2906	83.2749	25.8813	2.3293
4	1.3	0.05	90	0.3977	275.6993	20.0000	542.1218	910.6773	230.8823	83.2749	39.0016	1.5351
4	1.3	0.05	90	0.5965	502.7003	20.0000	428.5761	1221.9374	631.3885	83.2749	30.8328	0.5749
4	1.3	0.05	90	0.7953	789.1413	20.0000	-102.2686	1377.4285	1321.4368	83.2749	-7.3575	-0.0732
4	1.3	0.05	90	0.9942	1135.0239	20.0000	-1207.6948	1290.8984	2375.6581	83.2749	-86.8845	-0.5091
4	1.3	0.05	100	0.1988	94.3004	20.0000	353.8335	486.9921	36.2392	91.9600	25.4557	2.3028
4	1.3	0.05	100	0.3977	236.7307	20.0000	554.4800	899.2399	181.8567	91.9600	39.8906	1.7675
4	1.3	0.05	100	0.5965	427.2978	20.0000	489.5850	1207.5635	492.2431	91.9600	35.2219	0.7904
4	1.3	0.05	100	0.7953	666.0078	20.0000	44.1298	1355.0422	1022.8137	91.9600	3.1748	0.0395
4	1.3	0.05	100	0.9942	952.8642	20.0000	-932.1745	1249.7617	1828.9914	91.9600	-67.0629	-0.5028
4	1.3	0.1	90	0.1988	108.1349	20.0000	352.3431	484.0204	45.2906	83.2749	25.3484	2.2892
4	1.3	0.1	90	0.3977	275.6993	20.0000	521.4903	884.6577	230.8823	83.2749	37.5173	1.4829
4	1.3	0.1	90	0.5965	502.7003	20.0000	390.7498	1176.3008	631.3885	83.2749	28.1115	0.5261
4	1.3	0.1	90	0.7953	789.1413	20.0000	-159.1229	1310.2217	1321.4368	83.2749	-11.4477	-0.1142
4	1.3	0.1	90	0.9942	1135.0239	20.0000	-1283.7220	1201.6943	2375.6581	83.2749	-92.3541	-0.5424
4	1.3	0.1	100	0.1988	94.3004	20.0000	346.7735	476.8974	36.2392	91.9600	24.9477	2.2643
4	1.3	0.1	100	0.3977	236.7307	20.0000	534.8670	874.2469	181.8567	91.9600	38.4796	1.7127
4	1.3	0.1	100	0.5965	427.2978	20.0000	453.4002	1163.5827	492.2431	91.9600	32.6187	0.7351
4	1.3	0.1	100	0.7953	666.0078	20.0000	-10.6674	1289.8992	1022.8137	91.9600	-0.7674	-0.0096
4	1.3	0.1	100	0.9942	952.8642	20.0000	-1005.9670	1162.8052	1828.9914	91.9600	-72.3717	-0.5442
4	1.4	0.05	90	0.1988	108.1349	20.0000	429.4505	574.8310	45.2906	83.2749	30.8957	2.6931
4	1.4	0.05	90	0.3977	275.6993	20.0000	685.6710	1072.0087	230.8823	83.2749	49.3288	1.8864
4	1.4	0.05	90	0.5965	502.7003	20.0000	647.0880	1464.9888	631.3885	83.2749	46.5531	0.8501
4	1.4	0.05	90	0.7953	789.1413	20.0000	190.7973	1701.4805	1321.4368	83.2749	13.7264	0.1345
4	1.4	0.05	90	0.9942	1135.0239	20.0000	-841.5499	1694.1346	2375.6581	83.2749	-60.5432	-0.3509
4	1.4	0.05	100	0.1988	94.3004	20.0000	421.6093	565.2535	36.2392	91.9600	30.3316	2.6595
4	1.4	0.05	100	0.3977	236.7307	20.0000	694.7635	1057.1022	181.8567	91.9600	49.9830	2.1457
4	1.4	0.05	100	0.5965	427.2978	20.0000	703.9883	1446.3238	492.2431	91.9600	50.6466	1.1089
4	1.4	0.05	100	0.7953	666.0078	20.0000	332.6532	1674.4372	1022.8137	91.9600	23.9319	0.2921
4	1.4	0.05	100	0.9942	952.8642	20.0000	-570.6439	1648.3530	1828.9914	91.9600	-41.0535	-0.3036
4	1.4	0.1	90	0.1988	108.1349	20.0000	421.9954	564.2063	45.2906	83.2749	30.3594	2.6553
4	1.4	0.1	90	0.3977	275.6993	20.0000	664.9025	1045.6438	230.8823	83.2749	47.8347	1.8368
4	1.4	0.1	90	0.5965	502.7003	20.0000	608.9101	1418.7174	631.3885	83.2749	43.8065	0.8028
4	1.4	0.1	90	0.7953	789.1413	20.0000	133.3021	1633.2685	1321.4368	83.2749	9.5901	0.0943
4	1.4	0.1	90	0.9942	1135.0239	20.0000	-918.5476	1603.4976	2375.6581	83.2749	-66.0826	-0.3839
4	1.4	0.1	100	0.1988	94.3004	20.0000	414.5002	554.9972	36.2392	91.9600	29.8202	2.6231
4	1.4	0.1	100	0.3977	236.7307	20.0000	675.0243	1031.7826	181.8567	91.9600	48.5629	2.0939
4	1.4	0.1	100	0.5965	427.2978	20.0000	667.4781	1401.7385	492.2431	91.9600	48.0200	1.0558
4	1.4	0.1	100	0.7953	666.0078	20.0000	277.2510	1608.3141	1022.8137	91.9600	19.9461	0.2443
4	1.4	0.1	100	0.9942	952.8642	20.0000	-645.3612	1559.9995	1828.9914	91.9600	-46.4289	-0.3443
